Time (s),Frequency (Hz)
22.03028,
24.19384,
24.21284,
28.02196,
28.02296,
28.025,
28.027,
28.02804,
28.029,
28.05304,
28.05404,
28.05808,
28.05904,
28.06008,
28.0892,
28.09016,
28.09116,
29.53812,
29.7014,
29.7024,
29.7034,
29.70444,
29.70544,
29.70644,
29.7074,
29.70844,
29.7094,
29.71044,
29.71144,
29.71244,
29.71344,
29.71444,
29.71544,
29.71644,
29.71744,
29.71844,
29.71944,
29.72044,
29.72144,
29.72244,
29.72344,
29.72444,
29.72544,
29.72644,
29.72744,
29.72848,
29.72948,
29.73048,
29.73148,
29.73244,
29.73344,
29.73448,
29.73548,
29.73648,
29.73748,
29.73848,
29.73948,
29.74048,
29.74148,
29.74248,
29.74348,
29.74448,
29.74552,
29.74652,
29.74752,
29.74852,
29.74952,
29.75052,
29.75148,
29.75248,
29.75352,
29.75448,
29.75548,
29.75648,
29.75748,
29.75848,
29.75948,
29.76048,
29.76148,
29.76252,
29.76352,
29.76452,
29.76552,
29.76652,
29.76752,
29.76852,
29.76952,
29.77156,
29.77256,
29.77356,
29.77456,
29.77556,
29.7766,
29.7776,
29.7786,
29.7796,
29.7806,
29.7816,
29.7846,
29.7866,
29.7876,
29.7886,
29.7896,
29.79064,
29.7916,
29.7926,
29.79364,
29.79464,
29.79568,
29.79664,
29.79764,
29.79864,
29.7996,
29.80368,
29.84756,
29.84856,
29.85552,
29.85652,
29.85952,
29.86052,
29.86152,
29.86252,
29.86348,
29.86448,
29.86548,
29.86652,
29.86752,
29.86848,
29.86948,
29.87048,
29.87148,
29.87252,
29.87352,
29.87452,
29.87552,
29.87652,
29.87752,
29.87852,
29.87956,
29.88052,
29.88152,
29.88252,
29.88352,
29.88452,
29.88552,
29.88652,
29.88756,
29.88856,
29.88956,
29.89056,
29.89156,
29.89256,
29.89356,
29.89456,
29.89556,
29.89656,
29.89756,
29.89856,
29.89956,
29.9006,
29.9016,
29.9026,
29.9036,
29.9046,
29.9056,
29.9066,
29.9076,
29.9086,
29.9096,
29.9106,
29.9116,
29.9126,
29.9136,
29.9146,
29.91564,
29.91664,
29.91764,
29.91864,
29.91964,
29.92064,
29.92164,
29.92264,
29.92364,
29.92464,
29.92564,
29.92664,
29.92768,
29.92868,
29.92968,
29.93068,
29.93168,
29.93268,
29.93368,
29.93468,
29.93568,
29.93668,
29.93768,
29.93868,
29.93968,
29.94068,
29.94168,
29.94268,
29.94368,
29.94464,
29.94568,
29.94664,
29.94764,
29.94868,
29.94968,
29.95068,
29.95168,
29.95268,
29.95368,
29.95468,
29.95568,
29.95668,
29.95768,
29.95868,
29.95968,
29.96068,
29.96168,
29.96268,
29.96368,
29.96468,
29.96568,
29.96668,
29.96768,
29.96868,
29.96968,
29.97068,
29.97168,
29.97268,
29.97368,
29.97468,
29.97568,
29.97668,
29.97768,
29.97868,
29.97968,
29.98068,
29.98168,
29.98268,
29.98368,
29.98468,
29.98568,
29.98668,
29.98768,
29.98864,
29.98964,
29.99064,
29.99164,
29.99264,
29.99364,
29.99464,
29.99564,
29.99664,
29.99764,
29.99864,
29.99964,
