Time (s),Frequency (Hz)
15.63048,
15.69544,
15.9568,
15.9578,
15.95884,
15.95984,
16.15524,
16.15624,
16.15724,
16.15824,
16.72408,
16.72508,
16.72808,
16.89068,
16.89168,
16.89268,
16.89368,
16.91172,
16.91272,
16.94468,
16.95868,
16.95968,
16.96068,
16.96372,
17.11292,
17.14276,
17.14376,
17.14476,
17.14576,
17.14676,
17.14776,
17.1488,
17.1498,
17.1508,
17.1518,
17.1528,
17.1538,
17.1548,
17.1558,
17.15676,
17.1608,
17.1618,
17.1628,
17.16376,
17.16476,
17.16576,
17.18168,
17.18268,
17.18368,
17.18468,
17.18568,
17.18668,
17.18768,
17.18868,
17.18968,
17.19072,
17.19172,
17.19268,
17.19368,
17.19468,
17.19568,
17.19668,
17.19768,
17.19868,
17.19972,
17.20072,
17.20172,
17.20272,
17.20372,
17.20472,
17.20568,
17.21556,
17.2166,
17.2186,
17.2196,
17.2206,
17.2216,
17.2226,
17.2236,
17.22456,
17.22556,
17.22656,
17.22756,
17.22856,
17.22956,
17.23056,
17.23156,
17.2326,
17.2336,
17.2346,
17.2356,
17.23656,
17.2376,
17.2386,
17.23964,
17.24064,
17.2416,
17.2426,
17.2436,
17.2446,
17.2466,
17.2476,
17.2506,
17.2516,
17.2526,
17.2536,
17.2546,
17.25556,
17.27052,
17.27452,
17.32648,
17.38844,
17.39544,
17.3964,
17.39736,
17.39936,
17.40036,
17.40132,
17.40236,
17.40336,
17.40436,
17.40532,
17.40632,
17.40736,
17.40836,
17.40936,
17.41036,
17.41136,
17.41232,
17.41332,
17.41432,
17.41532,
17.41628,
17.41728,
17.41828,
17.41928,
17.42028,
17.42128,
17.42228,
17.42328,
17.42428,
17.42528,
17.42628,
17.42728,
17.42828,
17.42928,
17.43028,
17.43128,
17.43228,
17.43328,
17.43428,
17.43528,
17.43628,
17.43728,
17.43828,
17.43924,
17.44028,
17.44128,
17.44228,
17.44328,
17.44428,
17.44528,
17.44628,
17.44728,
17.44832,
17.44932,
17.45032,
17.45132,
17.45228,
17.45328,
17.45428,
17.45528,
17.45624,
17.45724,
17.45824,
17.45924,
17.46024,
17.46124,
17.46224,
17.46324,
17.46424,
17.46524,
17.46624,
17.47224,
17.4732,
17.4742,
17.4752,
17.4772,
17.47824,
17.47924,
17.48024,
17.48124,
17.48224,
17.48324,
17.48428,
17.48524,
17.48628,
17.48728,
17.48828,
17.48928,
17.49028,
17.49124,
17.49224,
17.49624,
17.49724,
17.49824,
17.49924,
17.50024,
17.50124,
17.50224,
17.50328,
17.50428,
17.50528,
17.50628,
17.50728,
17.5202,
17.52116,
17.61536,
17.61636,
17.6174,
17.6184,
17.6194,
17.6204,
17.6214,
17.6224,
17.6234,
17.6264,
17.63236,
17.63336,
17.63436,
17.63536,
17.6364,
17.6374,
17.6384,
17.6394,
17.6404,
17.6414,
17.65332,
17.65432,
17.66832,
17.66932,
17.67028,
17.67132,
17.67232,
17.67332,
17.67536,
17.67636,
18.72668,
18.72768,
18.72868,
18.72968,
18.73068,
18.73172,
18.73272,
18.73372,
18.73576,
18.73676,
18.78172,
18.78272,
18.78576,
18.7868,
18.78776,
18.7888,
19.13,
19.131,
19.132,
19.13404,
19.13504,
19.13604,
19.29532,
19.29632,
19.29732,
19.29832,
19.29936,
19.30036,
19.3014,
19.3024,
19.3034,
19.3044,
19.3054,
19.3064,
19.3074,
19.3084,
19.3094,
19.3104,
19.3114,
19.3124,
19.3134,
19.3144,
19.3154,
19.3164,
19.3174,
19.37128,
19.37232,
19.37332,
19.48924,
19.49024,
19.49124,
19.49224,
19.49324,
19.49424,
19.49528,
19.49624,
19.49724,
19.49824,
19.49928,
19.50028,
19.50128,
19.50228,
19.50332,
19.50432,
19.50532,
19.50632,
19.50732,
19.50832,
19.50932,
19.51032,
19.51128,
19.51228,
19.51328,
19.51432,
19.51532,
19.51632,
19.51732,
19.51832,
19.51932,
19.56528,
19.56628,
19.56728,
19.56832,
19.56932,
19.57028,
19.57132,
19.57232,
19.57332,
19.65856,
19.65956,
19.7276,
19.72864,
19.7296,
19.9996,
20.00056,
20.00152,
20.00256,
20.00352,
20.00452,
20.00552,
20.00656,
20.00756,
20.00856,
20.00956,
20.0106,
20.0116,
20.0126,
20.0136,
20.0146,
20.0156,
20.01664,
20.01764,
20.01864,
20.0196,
20.0206,
20.0216,
20.0226,
20.0236,
20.0246,
20.0256,
20.0266,
20.0276,
20.0286,
20.02964,
20.03064,
20.0316,
20.0326,
20.0336,
20.0346,
20.0356,
20.0366,
20.0376,
20.03864,
20.03964,
20.04064,
20.04164,
20.04264,
20.04364,
20.04464,
20.04568,
20.04668,
20.05164,
20.0566,
20.0646,
20.06556,
20.06656,
20.06756,
20.06856,
20.06952,
20.07056,
20.07156,
20.07256,
20.07356,
20.07456,
20.07556,
20.07656,
20.07756,
20.07856,
20.07956,
20.08056,
20.08156,
20.08256,
20.08356,
20.0846,
20.0856,
20.0866,
20.0876,
20.0886,
20.0896,
20.09056,
20.09156,
20.09256,
20.09356,
20.09456,
20.09552,
20.09656,
20.09756,
20.09856,
20.09956,
20.10056,
20.10156,
20.10256,
20.10356,
20.10456,
20.10556,
20.10656,
20.10752,
20.10852,
20.10956,
20.11056,
20.11156,
20.11256,
20.11356,
20.11452,
20.11552,
20.13844,
20.13948,
20.14044,
20.14144,
20.14248,
20.14348,
20.14448,
20.14548,
20.14648,
20.14748,
20.14848,
20.15144,
20.15244,
20.15548,
20.15648,
20.15752,
20.15848,
20.15952,
20.16048,
20.16148,
20.16252,
20.16352,
20.16452,
20.16552,
20.16652,
20.16752,
20.16852,
20.16952,
20.17052,
20.17152,
20.17252,
20.17352,
20.17452,
20.17556,
20.17652,
20.18348,
20.18544,
20.2044,
20.20536,
20.2124,
20.2134,
20.21436,
20.2154,
20.2164,
20.2174,
20.21836,
20.2204,
20.2214,
20.2244,
20.22536,
20.22636,
20.22736,
20.22836,
20.22936,
20.23036,
20.2314,
20.2324,
20.2334,
20.2344,
20.23544,
20.23644,
20.23744,
20.2384,
20.2464,
20.26132,
20.26232,
20.26732,
20.26932,
20.27032,
20.27132,
20.27232,
20.27332,
20.27432,
20.27532,
20.27632,
20.27832,
20.27936,
20.28036,
20.28136,
20.28236,
20.28336,
20.28432,
20.28636,
20.28736,
20.28832,
20.28936,
20.29036,
20.31736,
20.31836,
20.31936,
20.32036,
20.32136,
20.32236,
20.32336,
20.3284,
20.3294,
20.3304,
20.3314,
20.3324,
20.3334,
20.39052,
20.52744,
20.53752,
20.53852,
20.66576,
20.66676,
22.16916,
22.17016,
22.17116,
22.17216,
22.17316,
22.17416,
22.17516,
22.1762,
22.17716,
22.17816,
22.17916,
22.18016,
22.18116,
22.18216,
22.18316,
22.18416,
22.18516,
22.18616,
22.18716,
22.18816,
22.18916,
22.1902,
22.1912,
22.19216,
22.19316,
22.19416,
22.19916,
22.20016,
22.20112,
22.20212,
22.20312,
22.20412,
22.20516,
22.20616,
22.20716,
22.20816,
22.20916,
22.21016,
22.21112,
22.21212,
22.21312,
22.21412,
22.21512,
22.21612,
22.21712,
22.21816,
22.21916,
22.22016,
22.22116,
22.22216,
22.22316,
22.22416,
22.22516,
22.22616,
22.22716,
22.22816,
22.22916,
22.23016,
22.23116,
22.23216,
22.23316,
22.23416,
22.23516,
22.23616,
22.23716,
22.23816,
22.23916,
22.24016,
22.24116,
22.24216,
22.24316,
22.24416,
22.24516,
22.24612,
22.24716,
22.24816,
22.24916,
22.2502,
22.2512,
22.2522,
22.2532,
22.2542,
22.2552,
22.2562,
22.2572,
22.2582,
22.2592,
22.2602,
22.2612,
22.2622,
22.2632,
22.26416,
22.28216,
22.28316,
22.28416,
22.28516,
22.28616,
22.28716,
22.28816,
22.2892,
22.2902,
22.2912,
22.2922,
22.29324,
22.2942,
22.2952,
22.2962,
22.2972,
22.2982,
22.2992,
22.3002,
22.30124,
22.30224,
22.30324,
22.30424,
22.30524,
22.30624,
22.3142,
22.3152,
22.3162,
22.3172,
22.3182,
22.3192,
22.3202,
22.32124,
22.32224,
22.32324,
22.32424,
22.32524,
22.32624,
22.3272,
22.32824,
22.32924,
22.33024,
22.33124,
22.33224,
22.33324,
22.33424,
22.33524,
22.33624,
22.33728,
22.33828,
22.33928,
22.34028,
22.34128,
22.34228,
22.34332,
22.34432,
22.35424,
22.35524,
22.35624,
22.35724,
22.36024,
22.36224,
22.3652,
22.37124,
22.40008,
22.40108,
22.43,
22.43104,
22.432,
22.433,
22.43404,
22.445,
22.446,
22.447,
22.45492,
22.45592,
22.45692,
22.45792,
22.45892,
22.45992,
22.46092,
22.46192,
22.46292,
22.46392,
22.46492,
22.46592,
22.46692,
22.46788,
22.46888,
22.46988,
22.47088,
22.47184,
22.47284,
22.64684,
22.64784,
22.64884,
22.65184,
22.77892,
22.77992,
22.84316,
22.84416,
22.84616,
22.84716,
22.88024,
22.88224,
22.89228,
22.89328,
22.89524,
22.91028,
22.91124,
22.91224,
22.91324,
22.91428,
22.92228,
22.92328,
22.92428,
22.92528,
22.92728,
22.96532,
22.97832,
23.20928,
23.21028,
23.21128,
23.21228,
23.21328,
23.21428,
23.21528,
23.21628,
23.21728,
23.21828,
23.21928,
23.22032,
23.22132,
23.22228,
23.22328,
23.22428,
23.22528,
23.22628,
23.22728,
23.22828,
23.22932,
23.23032,
23.23128,
23.23228,
23.23332,
23.23432,
23.23532,
23.23632,
23.23736,
23.23836,
23.23936,
23.24032,
23.24132,
23.24232,
23.24332,
23.24432,
23.24532,
23.24628,
23.24732,
23.24832,
23.24932,
23.25032,
23.25132,
23.25232,
23.25332,
23.25432,
23.25532,
23.25632,
23.25732,
23.25832,
23.25928,
23.26028,
23.26128,
23.26228,
23.26328,
23.26428,
23.26528,
23.26628,
23.26728,
23.26832,
23.26932,
23.27032,
23.27132,
23.27232,
23.27328,
23.27428,
23.27528,
23.27628,
23.27728,
23.27828,
23.27928,
23.28028,
23.28128,
23.28228,
23.28328,
23.28432,
23.28532,
23.28628,
23.28728,
23.28828,
23.29228,
23.29328,
23.29428,
23.29528,
23.29628,
23.29728,
23.29832,
23.29932,
23.30032,
23.30132,
23.30232,
23.30332,
23.30432,
23.30528,
23.30628,
23.30728,
23.30828,
23.30928,
23.31024,
23.31128,
23.31228,
23.31328,
23.31428,
23.31528,
23.31628,
23.31728,
23.31828,
23.31928,
23.32028,
23.32128,
23.32228,
23.32428,
23.32528,
23.32628,
23.32728,
23.32828,
23.32928,
23.33028,
23.33128,
23.33228,
23.33328,
23.33432,
23.33532,
23.33728,
23.34828,
23.45852,
23.45952,
23.46056,
23.46156,
23.46256,
23.46356,
23.46456,
23.46556,
23.4666,
23.4676,
23.4686,
23.4696,
23.89572,
23.89772,
23.9118,
23.9128,
23.9138,
23.9148,
23.9168,
23.94672,
23.94872,
23.96072,
23.96376,
23.96476,
23.96576,
24.94392,
24.94492,
24.94592,
24.94796,
24.94896,
24.94996,
24.95096,
24.95196,
24.95996,
24.96196,
24.963,
24.964,
24.965,
24.96604,
24.96704,
24.97104,
24.97804,
24.97904,
24.98008,
24.98108,
24.98208,
24.98308,
24.98508,
25.01096,
25.01196,
25.01296,
25.01396,
25.01496,
25.01596,
25.01696,
25.018,
25.019,
25.02,
25.021,
25.02196,
25.023,
25.02396,
25.025,
25.026,
25.027,
25.028,
25.029,
25.03,
25.031,
25.032,
25.033,
25.034,
25.035,
25.036,
25.037,
25.038,
25.039,
25.04,
25.041,
25.042,
25.043,
25.044,
25.045,
25.046,
25.047,
25.048,
25.04904,
25.05,
25.051,
25.052,
25.053,
25.05404,
25.05504,
25.05608,
25.05708,
25.05804,
25.05908,
25.06004,
25.06108,
25.06208,
25.06308,
25.06408,
25.06508,
25.06604,
25.07512,
25.07612,
25.07712,
25.07812,
25.12004,
25.12104,
25.12204,
25.12404,
25.12604,
25.12704,
25.12804,
25.129,
25.13,
25.131,
25.135,
25.136,
25.137,
25.138,
25.139,
25.14004,
25.14104,
25.14204,
25.14304,
25.24428,
25.24528,
25.24628,
25.24728,
25.24828,
25.25028,
25.25128,
25.25628,
25.25928,
25.26028,
25.26232,
25.26332,
25.26432,
25.26532,
25.26632,
25.26732,
25.40612,
25.46516,
25.46616,
25.46716,
25.46816,
25.46916,
25.47016,
25.4712,
25.4722,
25.4732,
25.4742,
25.47524,
25.4762,
25.75916,
25.7612,
25.7622,
25.7632,
25.7642,
25.93644,
25.93744,
25.93844,
25.93948,
25.94048,
26.05364,
26.13064,
26.13868,
27.36688,
27.36792,
27.63416,
27.64708,
27.64812,
27.64912,
27.65016,
27.65112,
27.65212,
27.65316,
27.65416,
27.65516,
27.65616,
27.65716,
27.65816,
27.66416,
27.66616,
27.72244,
27.7234,
27.73748,
27.73848,
27.73948,
27.74052,
27.74152,
27.74252,
27.74352,
27.74856,
27.75352,
27.75452,
27.75552,
27.75652,
27.75752,
27.75852,
27.75956,
27.76056,
27.76156,
27.76256,
27.76356,
27.76456,
27.76556,
27.76656,
27.7676,
27.7686,
27.7696,
27.7706,
27.7716,
27.77256,
27.77764,
27.77864,
27.84364,
27.84464,
27.8456,
27.8476,
27.8506,
27.8516,
27.8526,
27.8536,
27.8546,
27.85564,
27.85664,
27.85764,
27.85864,
27.85964,
27.86064,
27.86168,
27.86264,
27.86368,
27.86464,
27.86564,
27.86664,
27.86764,
27.86864,
27.86964,
27.87064,
27.87164,
27.87268,
27.87368,
27.87464,
27.87564,
27.87664,
27.87764,
27.87864,
27.88464,
27.91652,
27.91852,
27.91952,
27.92052,
27.92152,
27.92256,
27.92356,
27.92456,
27.9256,
27.9266,
27.9276,
27.9286,
27.92956,
27.93056,
27.93256,
27.93556,
27.9366,
27.93756,
27.93856,
27.93956,
27.9406,
27.9416,
27.9426,
27.9436,
28.50724,
28.50824,
28.50928,
28.55824,
28.55924,
28.56024,
28.56128,
28.56228,
28.56328,
28.56432,
28.56532,
28.56632,
28.85884,
28.96468,
28.96568,
28.96668,
29.0078,
29.0088,
29.0098,
29.01084,
29.04872,
29.0508,
29.0518,
29.0528,
29.0538,
29.0548,
29.05576,
29.06772,
29.08472,
29.08572,
29.08676,
29.08776,
29.08876,
29.08976,
29.09076,
29.60128,
29.60228,
29.60328,
29.60428,
29.60532,
29.60632,
